# SrXgui configration #
[Experiment]
maskfile = 
integrationspace = qspace
wavelength = 0.18333
xbeamcenter = 1020.27
ybeamcenter = 1026.162
distance = 205.364
rotationd = 143.555
tiltd = 2.131
tthstepd = 0.02
qstep = 0.02

[Beamline]
fliphorizontal = False
flipvertical = False
xdimension = 2048
ydimension = 2048
xpixelsize = 0.2
ypixelsize = 0.2

[Others]
uncertaintyenable = True
sacorrectionenable = True
polcorrectionenable = True
polcorrectf = 0.99
brightpixelmask = True
darkpixelmask = True
avgmask = False
cropedges = 10, 10, 10, 10

#### start data
0 0 0
0.02 0 0
0.04 0 0
0.06 0 0
0.08 0 0
0.1 0 0
0.12 0 0
0.14 0 0
0.16 0 0
0.18 0 0
0.2 0 0
0.22 0 0
0.24 0 0
0.26 0 0
0.28 0 0
0.3 0 0
0.32 0 0
0.34 88.7779 54.8266
0.36 141.075 69.1138
0.38 649.506 148.296
0.4 1602.61 232.945
0.42 2725.95 303.807
0.44 4310.84 382.05
0.46 5823.95 444.066
0.48 7211.7 494.149
0.5 8115.45 524.198
0.52 9289.41 560.833
0.54 10539.3 597.373
0.56 11591.6 626.484
0.58 12465.8 649.679
0.6 12854.1 659.719
0.62 14077.4 690.399
0.64 14663.1 704.616
0.66 14903.4 710.367
0.68 15739.7 730.023
0.7 15682.8 728.703
0.72 16107.4 738.503
0.74 16470.5 746.78
0.76 16536.8 748.283
0.78 17095.2 760.811
0.8 17011.8 758.952
0.82 17224.2 763.674
0.84 17388.3 767.305
0.86 17330.8 766.035
0.88 17713.1 774.437
0.9 17301.4 765.387
0.92 17692.5 773.987
0.94 17777 775.831
0.96 17600.1 771.962
0.98 17900.1 778.515
1 17495.9 769.676
1.02 17682.5 773.768
1.04 17820.6 776.783
1.06 17581.9 771.562
1.08 17858.3 777.605
1.1 17462.9 768.949
1.12 17635.4 772.737
1.14 17762.5 775.515
1.16 17539.3 770.63
1.18 17860.7 777.656
1.2 17541.4 770.677
1.22 17661.5 773.309
1.24 17698.1 774.109
1.26 17611 772.203
1.28 17876.7 778.008
1.3 17518.9 770.18
1.32 17653.4 773.131
1.34 17740.8 775.041
1.36 17544.9 770.752
1.38 17570.6 771.317
1.4 17264.1 764.559
1.42 17250 764.249
1.44 17183.7 762.779
1.46 16912.9 756.744
1.48 17009.4 758.899
1.5 16570.5 749.045
1.52 16525.8 748.031
1.54 16522.9 747.96
1.56 16201.1 740.647
1.58 16316.1 743.275
1.6 15942.5 734.71
1.62 15885 733.385
1.64 15917.4 734.133
1.66 15706.7 729.266
1.68 15796 731.329
1.7 15485.7 724.109
1.72 15507.2 724.613
1.74 15575.5 726.206
1.76 15457.6 723.449
1.78 15611.6 727.047
1.8 15448.2 723.231
1.82 15417.5 722.511
1.84 15551.2 725.647
1.86 15363.1 721.237
1.88 15565.6 725.978
1.9 15427.3 722.744
1.92 15386.2 721.78
1.94 15553.1 725.684
1.96 15453.7 723.363
1.98 15598.3 726.734
2 15457.3 723.442
2.02 15387.1 721.805
2.04 15452.2 723.325
2.06 15276.7 719.208
2.08 15444.5 723.149
2.1 15252.9 718.644
2.12 15247.3 718.519
2.14 15424.1 722.666
2.16 15352.8 720.996
2.18 15434.7 722.915
2.2 15328.2 720.424
2.22 15345.7 720.823
2.24 15507.4 724.618
2.26 15485.6 724.107
2.28 15690.7 728.891
2.3 15698.3 729.061
2.32 15785.8 731.096
2.34 16052.2 737.235
2.36 16114.5 738.668
2.38 16371.9 744.542
2.4 16355.9 744.176
2.42 16466.1 746.673
2.44 16677.5 751.46
2.46 16690.7 751.758
2.48 17017.3 759.072
2.5 17042.4 759.63
2.52 17303.3 765.426
2.54 17585.4 771.639
2.56 17656.4 773.193
2.58 18080 782.417
2.6 18233.2 785.719
2.62 18568.5 792.918
2.64 18985 801.762
2.66 19314.9 808.697
2.68 19790.3 818.59
2.7 20036 823.654
2.72 20561.3 834.386
2.74 21139.1 846.022
2.76 21441.5 852.052
2.78 22091.6 864.875
2.8 22526.3 873.342
2.82 23122.1 884.812
2.84 23967.5 900.845
2.86 24724.8 914.967
2.88 25926.8 936.947
2.9 27227 960.151
2.92 29352.4 996.925
2.94 32528.9 1049.48
2.96 37531 1127.28
2.98 49102.6 1289.41
3 72490.5 1566.68
3.02 140407 2180.39
3.04 296761 3169.87
3.06 538435 4269.78
3.08 921632 5586.22
3.1 1.38861e+06 6856.92
3.12 1.73946e+06 7674.44
3.14 1.85946e+06 7934.75
3.16 1.47135e+06 7058.26
3.18 986164 5778.48
3.2 565026 4373.94
3.22 304353 3210.16
3.24 137379 2156.74
3.26 72249 1564.05
3.28 50414.6 1306.53
3.3 40087 1165.02
3.32 35485.9 1096.13
3.34 33145.1 1059.38
3.36 31516.9 1033.04
3.38 30953.1 1023.76
3.4 30892.8 1022.74
3.42 31454.4 1031.99
3.44 33563.2 1066.05
3.46 37318.8 1124.07
3.48 48069.5 1275.75
3.5 73836 1581.15
3.52 131112 2106.98
3.54 249325 2905.49
3.56 406448 3709.73
3.58 631927 4625.65
3.6 824272 5282.92
3.62 903918 5532.27
3.64 763059 5082.97
3.66 530101 4236.62
3.68 324865 3316.58
3.7 167452 2381.11
3.72 86291.6 1709.29
3.74 49606.3 1296.01
3.76 33280 1061.51
3.78 27345 962.243
3.8 24160.7 904.433
3.82 22197.1 866.982
3.84 21140.1 845.995
3.86 20177.8 826.571
3.88 19534.3 813.237
3.9 19123.7 804.808
3.92 18677.9 795.236
3.94 18416.7 789.592
3.96 18043.4 781.613
3.98 17714.8 774.5
4 17532.6 770.448
4.02 17267.2 764.604
4.04 17098.3 760.887
4.06 16983 758.271
4.08 16748 753.086
4.1 16666.8 751.191
4.12 16438 746.038
4.14 16325.2 743.561
4.16 16231.1 741.257
4.18 16031.9 736.774
4.2 16001.6 736.031
4.22 15881.4 733.292
4.24 15854.1 732.732
4.26 15859.6 732.812
4.28 15754 730.398
4.3 15770 730.735
4.32 15700.3 729.074
4.34 15678 728.58
4.36 15657.3 728.142
4.38 15610.6 727.091
4.4 15630.1 727.493
4.42 15620.4 727.262
4.44 15648.7 727.904
4.46 15711.9 729.363
4.48 15693.5 729.001
4.5 15812.8 731.744
4.52 15722.3 729.649
4.54 15799 731.465
4.56 15847.7 732.502
4.58 15843.8 732.431
4.6 15976.4 735.474
4.62 16044.6 737.032
4.64 16133.1 739.114
4.66 16358.6 744.222
4.68 16435.3 745.982
4.7 16658.7 751.094
4.72 16879.8 756.028
4.74 17045.7 759.665
4.76 17317.4 765.719
4.78 17508.4 770.031
4.8 17770.1 775.674
4.82 18103.2 782.906
4.84 18402.8 789.296
4.86 18932.9 800.672
4.88 19373.5 809.955
4.9 20176 826.546
4.92 21341.7 850.12
4.94 23135 885.064
4.96 26767.3 951.992
4.98 33950.6 1072.15
5 53090.8 1340.75
5.02 93849.6 1782.61
5.04 168883 2391.28
5.06 283948 3100.69
5.08 419646 3769.47
5.1 538742 4271.01
5.12 552919 4326.83
5.14 448598 3897.34
5.16 300593 3190.25
5.18 183506 2492.69
5.2 110668 1935.74
5.22 63548.4 1466.86
5.24 39787.1 1160.68
5.26 29856.4 1005.45
5.28 25331.2 926.103
5.3 23351.4 889.16
5.32 22310 869.233
5.34 21462.8 852.4
5.36 21071.3 844.727
5.38 20794.2 839.119
5.4 20552.1 834.167
5.42 20449.7 832.142
5.44 20407.3 831.253
5.46 20265.8 828.328
5.48 20334.6 829.812
5.5 20185.4 826.704
5.52 20239.6 827.847
5.54 20312.2 829.291
5.56 20306 829.235
5.58 20513.2 833.372
5.6 20470.5 832.538
5.62 20676.9 836.715
5.64 20920.4 841.653
5.66 21035 843.944
5.68 21365.3 850.618
5.7 21615.7 855.435
5.72 21920.6 861.56
5.74 22494.7 872.809
5.76 22933.7 881.214
5.78 23816.3 898.009
5.8 25079 921.458
5.82 26983.8 955.909
5.84 31523.2 1033.11
5.86 40435.4 1170.1
5.88 62109.5 1450.16
5.9 107301 1906.09
5.92 176778 2446.54
5.94 308195 3230.37
5.96 443959 3877.14
5.98 555200 4335.76
6 566514 4379.69
6.02 467934 3980.46
6.04 330259 3343.98
6.06 211903 2678.63
6.08 138768 2167.6
6.1 85136.5 1697.86
6.12 55454.8 1370.3
6.14 44860.2 1232.42
6.16 47381.1 1266.67
6.18 62197.1 1451.12
6.2 91005.4 1755.41
6.22 127677 2079.2
6.24 162013 2342.15
6.26 172225 2414.84
6.28 153341 2278.6
6.3 117170 1991.82
6.32 80737.8 1653.38
6.34 56892 1387.93
6.36 42433.5 1198.67
6.38 30391.4 1014.37
6.4 24674.2 914.033
6.42 21405.5 851.38
6.44 19977.7 822.431
6.46 19253.1 807.413
6.48 18722.9 796.207
6.5 18321.5 787.621
6.52 18087.9 782.54
6.54 17748.5 775.245
6.56 17565.2 771.269
6.58 17392 767.389
6.6 17198.1 763.108
6.62 17129.7 761.537
6.64 16879.9 756.07
6.66 16791.3 753.967
6.68 16753.6 753.135
6.7 16547.4 748.498
6.72 16471.8 746.927
6.74 16343.8 743.829
6.76 16188.8 740.353
6.78 16200.9 740.645
6.8 16005.5 736.085
6.82 15979.5 735.57
6.84 16010.2 736.334
6.86 15880.5 733.278
6.88 15900 733.684
6.9 15847.3 732.524
6.92 15796.7 731.356
6.94 15930 734.425
6.96 15812.5 731.762
6.98 15884.6 733.382
7 16008.2 736.209
7.02 16057.5 737.377
7.04 16337.3 743.816
7.06 16763.4 753.359
7.08 17696.9 774.068
7.1 19971 822.362
7.12 23439 890.877
7.14 30334.3 1013.47
7.16 40817.9 1175.62
7.18 51837.2 1324.83
7.2 65047.4 1484.02
7.22 69538.2 1534.48
7.24 66112 1496.14
7.26 56347.5 1381.28
7.28 46239.5 1251.23
7.3 36302.9 1108.73
7.32 29464.3 998.766
7.34 24907.3 918.411
7.36 20954.5 842.318
7.38 18752.7 796.856
7.4 17651.9 773.113
7.42 17224.9 763.717
7.44 17019.1 759.151
7.46 17047 759.773
7.48 17167.7 762.355
7.5 17159 762.254
7.52 17310.8 765.642
7.54 17500.8 769.77
7.56 17612.6 772.25
7.58 17905.3 778.617
7.6 18064.2 782.136
7.62 18363.3 788.519
7.64 18809 798.002
7.66 19206.2 806.468
7.68 19988.5 822.609
7.7 21229.1 847.837
7.72 23789.7 897.469
7.74 29159.6 993.663
7.76 38459 1141.17
7.78 55227.2 1367.45
7.8 79864.4 1644.46
7.82 108742 1918.85
7.84 137190 2155.25
7.86 155553 2294.97
7.88 152008 2268.67
7.9 137030 2154.01
7.92 114641 1970.18
7.94 96267.7 1805.44
7.96 83917.3 1685.65
7.98 79995.3 1645.77
8 89211.6 1738.01
8.02 104730 1883.11
8.04 122764 2038.83
8.06 135101 2138.77
8.08 134465 2133.75
8.1 121100 2024.94
8.12 104538 1881.36
8.14 83461 1681.06
8.16 65771.4 1492.31
8.18 52532.9 1333.67
8.2 40474.1 1170.63
8.22 31582.5 1034.11
8.24 25575.3 930.562
8.26 21806.4 859.293
8.28 20184.5 826.64
8.3 19379.4 810.054
8.32 18867.9 799.262
8.34 18670.4 794.95
8.36 18353.2 788.374
8.38 18231.8 785.72
8.4 18130.4 783.467
8.42 17926.8 779.151
8.44 17952.3 779.514
8.46 17914 778.925
8.48 17795.8 776.192
8.5 17931.5 779.18
8.52 17792.9 776.157
8.54 17823.8 776.906
8.56 17900.1 778.451
8.58 17856.4 777.596
8.6 17977.1 780.18
8.62 18204 785.144
8.64 18441.5 790.127
8.66 19181.4 805.916
8.68 20600.6 835.203
8.7 23370.9 889.517
8.72 28746.2 986.562
8.74 36996.3 1119.24
8.76 47586.3 1269.31
8.78 62309.9 1452.52
8.8 72053.8 1561.97
8.82 80118.9 1646.99
8.84 82290.9 1669.23
8.86 79145.6 1637.03
8.88 73016.9 1572.35
8.9 63373.5 1464.86
8.92 55879.3 1375.5
8.94 45771.1 1244.91
8.96 38920.8 1147.96
8.98 32074.8 1042.13
9 26456.9 946.506
9.02 22419.6 871.245
9.04 19956.1 822.002
9.06 18886.1 799.643
9.08 18248.4 786.149
9.1 18076.7 782.292
9.12 18033 781.44
9.14 18002.2 780.644
9.16 18198.9 784.939
9.18 18635.6 794.357
9.2 19702 816.751
9.22 22062.9 864.376
9.24 26160.4 941.134
9.26 33322.1 1062.22
9.28 42843.1 1204.38
9.3 53289.2 1343.25
9.32 64255.1 1475
9.34 70432.9 1544.25
9.36 73248.5 1574.86
9.38 72798.7 1570.01
9.4 71512.6 1556.09
9.42 66792.2 1503.83
9.44 59743.1 1422.28
9.46 53371.2 1344.32
9.48 46154.1 1250.07
9.5 37940.3 1133.41
9.52 32600.3 1050.57
9.54 26502.3 947.332
9.56 22086.9 864.824
9.58 19266.7 807.678
9.6 17530.4 770.409
9.62 16805 754.391
9.64 16333.8 743.579
9.66 16095.4 738.314
9.68 15992.4 735.894
9.7 15811.5 731.635
9.72 15734.6 729.867
9.74 15705.8 729.262
9.76 15583.2 726.468
9.78 15579.6 726.183
9.8 15552.6 725.82
9.82 15496.3 724.366
9.84 15495.1 724.329
9.86 15507 724.577
9.88 15485 724.077
9.9 15548.1 725.527
9.92 15526 725.06
9.94 15570.7 726.123
9.96 15691.1 728.891
9.98 15740.6 730.052
10 15954.8 734.972
10.02 16323.4 743.45
10.04 16968.5 757.954
10.06 18220.7 785.538
10.08 20082 824.582
10.1 22431.7 871.482
10.12 24860 917.422
10.14 26815.5 952.987
10.16 27678.6 968.073
10.18 27794.5 970.103
10.2 27750.3 969.31
10.22 27424.2 963.631
10.24 27744.6 969.158
10.26 27409 963.361
10.28 26484.1 947.045
10.3 25245.1 924.487
10.32 24075.8 902.877
10.34 22589.9 874.554
10.36 21275.4 848.769
10.38 20231.1 827.633
10.4 19079.5 803.769
10.42 18665.4 794.938
10.44 18466.6 790.858
10.46 18904.2 799.977
10.48 20098.6 824.888
10.5 22199.8 867.052
10.52 26148.9 940.87
10.54 32514.8 1049.34
10.56 39073.7 1150.2
10.58 46663.9 1256.96
10.6 51497.5 1320.47
10.62 53780.6 1349.45
10.64 54478.9 1358.14
10.66 54580 1359.5
10.68 57252.7 1392.31
10.7 62050.4 1449.46
10.72 65634.9 1490.74
10.74 68497.3 1522.94
10.76 67166.2 1508.08
10.78 63446.4 1465.7
10.8 58685.9 1409.65
10.82 53776.7 1349.36
10.84 49324.6 1292.26
10.86 45567.3 1242.17
10.88 41968.1 1192.05
10.9 38585.1 1142.97
10.92 35722 1099.79
10.94 32559.1 1049.96
10.96 30066.6 1009.01
10.98 27166.7 959.088
11 24398.7 908.825
11.02 22291.3 868.778
11.04 20166.3 826.315
11.06 18791.2 797.707
11.08 18031.9 781.348
11.1 17585.8 771.666
11.12 17357.8 766.604
11.14 17300.2 765.347
11.16 17215 763.595
11.18 17325.6 765.91
11.2 17672.6 773.55
11.22 18287 786.836
11.24 19656.4 815.738
11.26 21490.3 853.06
11.28 23650.7 894.876
11.3 25947.7 937.341
11.32 27342.2 962.21
11.34 27324.6 961.877
11.36 26894.1 954.276
11.38 26554.6 948.21
11.4 25995.6 938.207
11.42 25971.1 937.687
11.44 26169.8 941.358
11.46 26444.3 946.273
11.48 26508.9 947.388
11.5 25975.2 937.852
11.52 25317.7 925.839
11.54 24145.2 904.1
11.56 23167.1 885.726
11.58 21613.2 855.46
11.6 20486.6 832.888
11.62 19795.6 818.649
11.64 19444.4 811.346
11.66 20200.8 827.064
11.68 21628 855.754
11.7 23473.8 891.46
11.72 25020.9 920.425
11.74 25560.9 930.363
11.76 26064.2 939.41
11.78 26515.3 947.546
11.8 27249.2 960.525
11.82 28711.5 985.957
11.84 30477 1015.84
11.86 31305 1029.61
11.88 32008.1 1041.01
11.9 31886.9 1039.1
11.92 31227.3 1028.27
11.94 30597.1 1017.82
11.96 29376.9 997.337
11.98 28405.4 980.728
12 27600.8 966.759
12.02 26815.8 952.8
12.04 25811.1 934.898
12.06 24613.4 912.89
12.08 23630.7 894.549
12.1 22362.5 870.067
12.12 21285.5 849.103
12.14 20210.5 827.148
12.16 19050.4 803.167
12.18 18117.8 783.227
12.2 17038.1 759.566
12.22 16454.5 746.441
12.24 15995 735.813
12.26 15780.4 731.021
12.28 15775.6 730.902
12.3 15984.2 735.657
12.32 16345.3 743.858
12.34 16776.9 753.728
12.36 17158.5 762.237
12.38 17474 769.164
12.4 17457.6 768.821
12.42 17309.6 765.545
12.44 17213.2 763.358
12.46 17131.2 761.62
12.48 17063.9 760.101
12.5 17117.4 761.355
12.52 17123.1 761.436
12.54 17256.6 764.346
12.56 17454.3 768.801
12.58 17597.9 771.97
12.6 17749 775.153
12.62 17963.4 779.941
12.64 18413.2 789.629
12.66 19020.6 802.46
12.68 20315.7 829.413
12.7 22270.6 868.416
12.72 24169 904.675
12.74 26003.5 938.326
12.76 27183 959.345
12.78 26641.5 949.799
12.8 27394.1 963.037
12.82 27345 962.344
12.84 28021.8 974.047
12.86 28209.5 977.288
12.88 28912.7 989.449
12.9 28853.4 988.37
12.92 28871.4 988.72
12.94 28796.4 987.387
12.96 28855.8 988.496
12.98 29131.8 993.184
13 29143.3 993.383
13.02 28327.7 979.343
13.04 27944.7 972.787
13.06 27123.1 958.287
13.08 26179.5 941.518
13.1 24896.8 918.167
13.12 23964.9 900.744
13.14 22774.5 878.136
13.16 21491.4 853.06
13.18 20590.3 834.961
13.2 19889.7 820.66
13.22 19399 810.461
13.24 18974.3 801.523
13.26 19085.1 803.955
13.28 19736.9 817.453
13.3 20969.5 842.568
13.32 22430.3 871.488
13.34 23816.4 898.026
13.36 24238.2 905.948
13.38 24053.7 902.422
13.4 23488 891.775
13.42 22923.9 880.956
13.44 22416.1 871.217
13.46 22142.8 865.904
13.48 22084.7 864.829
13.5 22133.6 865.676
13.52 22114 865.35
13.54 22342.6 869.711
13.56 22768.9 878.017
13.58 23545.3 892.956
13.6 24581.3 912.244
13.62 25843.1 935.435
13.64 27602.5 966.747
13.66 29485.8 999.182
13.68 30538 1016.84
13.7 31015.9 1024.78
13.72 29979.6 1007.52
13.74 28297.3 978.84
13.76 26926 954.871
13.78 25216.6 924.017
13.8 24020.4 901.829
13.82 23628.3 894.369
13.84 23236.1 887.033
13.86 22959.5 881.7
13.88 22954.8 881.571
13.9 23135 885.08
13.92 23218.6 886.667
13.94 23479.7 891.598
13.96 24015.1 901.721
13.98 24115.6 903.67
14 24044.5 902.294
14.02 23591.4 893.729
14.04 23062.6 883.742
14.06 22114.4 865.344
14.08 20821.7 839.656
14.1 19700.2 816.698
14.12 18472.8 790.828
14.14 17416.3 767.939
14.16 16577.3 749.147
14.18 16113.5 738.678
14.2 15840.9 732.381
14.22 15752 730.291
14.24 15751.3 730.288
14.26 15748.4 730.233
14.28 15636.6 727.685
14.3 15588.3 726.436
14.32 15540.8 725.501
14.34 15407.6 722.159
14.36 15375.3 721.62
14.38 15366.2 721.351
14.4 15394.6 721.926
14.42 15344.1 720.873
14.44 15351.4 720.886
14.46 15479.4 723.95
14.48 15602.5 726.819
14.5 15909.2 734.065
14.52 16410.4 745.359
14.54 16998.9 758.674
14.56 17520.7 770.189
14.58 17988.6 780.482
14.6 18526.2 792.076
14.62 19052.8 803.101
14.64 19569.2 814.022
14.66 20308.6 829.256
14.68 20833.9 839.88
14.7 20642.4 835.987
14.72 20319.3 829.517
14.74 20022.5 823.368
14.76 19664.5 815.935
14.78 19373.4 809.918
14.8 19223.4 806.769
14.82 19192.3 806.274
14.84 19132.5 804.753
14.86 19167.8 805.671
14.88 19216.5 806.608
14.9 19431.3 811.133
14.92 19462.7 811.774
14.94 19579 814.193
14.96 19638.2 815.446
14.98 19770.4 818.153
15 19907.9 821.066
15.02 20135.1 825.631
15.04 20342.1 829.964
15.06 20627.5 835.687
15.08 20679.9 836.812
15.1 20480 832.75
15.12 20021.6 823.411
15.14 19455.1 811.608
15.16 18714.1 795.942
15.18 18045.3 781.69
15.2 17525.6 770.308
15.22 17230.3 763.889
15.24 16999.6 758.604
15.26 16924.5 757.024
15.28 16971.7 757.999
15.3 17146.2 761.985
15.32 17429.3 768.213
15.34 18044.1 781.641
15.36 18834.7 798.561
15.38 19677.7 816.281
15.4 20324.4 829.559
15.42 20713.8 837.463
15.44 20829.2 839.832
15.46 21071.5 844.676
15.48 21043.2 844.075
15.5 21096.9 845.172
15.52 20894.7 841.188
15.54 20575 834.67
15.56 20102.9 825.029
15.58 19689.9 816.529
15.6 19295.8 808.298
15.62 18947.2 800.929
15.64 18591.1 793.327
15.66 18486.7 791.211
15.68 18275.6 786.604
15.7 18344.2 788.146
15.72 18386.3 789.028
15.74 18461.7 790.626
15.76 18609.2 793.845
15.78 18762.1 797.012
15.8 19006.3 802.245
15.82 19151.7 805.207
15.84 19253.2 807.512
15.86 19378.3 809.993
15.88 19273.1 807.774
15.9 19150.2 805.288
15.92 18837.2 798.566
15.94 18309.1 787.385
15.96 17756 775.347
15.98 17282.5 765.011
16 16891.6 756.234
16.02 16655.7 750.98
16.04 16395.9 745.03
16.06 16273.1 742.316
16.08 16296.4 742.792
16.1 16447.9 746.302
16.12 16857.4 755.445
16.14 17503.3 769.908
16.16 18186.1 784.742
16.18 18761.9 797.023
16.2 19132.8 804.819
16.22 19330.8 809.01
16.24 19569.7 813.994
16.26 19728.4 817.407
16.28 19906.7 820.871
16.3 19859.2 820.009
16.32 19597.3 814.618
16.34 19396.3 810.426
16.36 19213.9 806.587
16.38 18938.6 800.77
16.4 18671.5 795.061
16.42 18489.1 791.256
16.44 18392.6 789.147
16.46 18116 783.201
16.48 17976.8 780.148
16.5 17842.6 777.29
16.52 17820.7 776.789
16.54 17814.2 776.576
16.56 17964.9 779.98
16.58 18146.9 783.863
16.6 18361.7 788.423
16.62 18711.2 795.931
16.64 19024.7 802.718
16.66 19112.7 804.34
16.68 18972.1 801.493
16.7 18780.1 797.436
16.72 18515.4 791.737
16.74 18128.8 783.547
16.76 17797.3 776.198
16.78 17266.8 764.671
16.8 16843.6 755.162
16.82 16414.7 745.585
16.84 16175.1 739.985
16.86 16031 736.763
16.88 15990.2 735.749
16.9 16046.5 737.137
16.92 16087.2 738.083
16.94 16050.4 737.12
16.96 15974.4 735.453
16.98 15829.1 732.175
17 15660.6 728.151
17.02 15518.1 724.822
17.04 15446 723.108
17.06 15359.3 721.222
17.08 15348.4 720.847
17.1 15318.3 720.221
17.12 15328.1 720.404
17.14 15291.3 719.631
17.16 15242.2 718.333
17.18 15190.8 717.162
17.2 15085.3 714.783
17.22 15030.8 713.361
17.24 14958.3 711.746
17.26 14852.4 709.11
17.28 14787.7 707.578
17.3 14772.8 707.341
17.32 14832.9 708.708
17.34 14963.8 711.765
17.36 15078.1 714.539
17.38 15144.6 715.988
17.4 15254.6 718.794
17.42 15272.1 719.098
17.44 15294.5 719.606
17.46 15222.7 717.873
17.48 15124.3 715.666
17.5 15024.6 713.222
17.52 14932.4 711.125
17.54 14839.3 708.786
17.56 14843.8 709.021
17.58 14930.3 711.008
17.6 15153.7 716.259
17.62 15432.7 722.862
17.64 15625.7 727.344
17.66 15781.2 731.016
17.68 15836.3 732.257
17.7 15832.3 732.13
17.72 15756.3 730.453
17.74 15722.4 729.608
17.76 15690.3 728.907
17.78 15594.8 726.744
17.8 15509.8 724.514
17.82 15465.8 723.731
17.84 15429.3 722.77
17.86 15429.4 722.791
17.88 15409.2 722.365
17.9 15427.3 722.76
17.92 15454.9 723.332
17.94 15426.2 722.791
17.96 15445.1 723.184
17.98 15506.4 724.479
18 15624 727.342
18.02 15794.1 731.32
18.04 16023 736.597
18.06 16260.1 741.97
18.08 16322.5 743.398
18.1 16331.1 743.53
18.12 16291.2 742.824
18.14 16255.2 741.806
18.16 16269.8 742.161
18.18 16265.1 742.002
18.2 16304.2 743.122
18.22 16327.1 743.511
18.24 16327 743.581
18.26 16407.9 745.358
18.28 16493.9 747.289
18.3 16578.2 749.136
18.32 16626.3 750.348
18.34 16497.6 747.409
18.36 16343.2 743.812
18.38 16178 740.109
18.4 16020.2 736.514
18.42 15855.8 732.785
18.44 15674.3 728.467
18.46 15507.9 724.589
18.48 15404.3 722.253
18.5 15309 719.939
18.52 15231.8 718.12
18.54 15161.9 716.66
18.56 15154.7 716.153
18.58 15164.4 716.643
18.6 15148.5 716.15
18.62 15177.8 716.786
18.64 15179.7 717.067
18.66 15188.9 717.024
18.68 15106.6 715.217
18.7 15050 713.891
18.72 14987.3 712.38
18.74 14883.9 709.76
18.76 14736.5 706.481
